
  ZVR, 2.05

  stimulus-start        ; stimulus-stop       ; stimulus-unit       ; nof-points; parameter-type; impedance-ohm
  9.00000000000E+03     ; 1.00000000000E+08   ; Hz                  ; 2001      ; S11           ; 50        

  conversion            ; time-domain         ; data-format         ; param-unit; smoothing     ; trace-math
  S                     ; none                ; RI                  ; none      ; none          ; none

  sweep-mode-type       ; notlinear-meas-mode 
  FUNDAMENTAL           ; none                


  freq              ;  reS11        ; imS11         
   9.00000000000E+03;  0.826359     ; 0.442587     
   9.04201843582E+03;  0.827597     ; 0.443521     
   9.08423304375E+03;  0.83084      ; 0.443883     
   9.12664473965E+03;  0.834461     ; 0.443784     
   9.16925444368E+03;  0.830947     ; 0.443976     
   9.21206308028E+03;  0.833587     ; 0.4392       
   9.25507157820E+03;  0.835498     ; 0.435486     
   9.29828087055E+03;  0.835735     ; 0.434211     
   9.34169189477E+03;  0.837175     ; 0.432774     
   9.38530559270E+03;  0.838733     ; 0.431148     
   9.42912291056E+03;  0.839508     ; 0.430041     
   9.47314479899E+03;  0.839975     ; 0.428656     
   9.51737221307E+03;  0.841706     ; 0.42821      
   9.56180611235E+03;  0.84266      ; 0.426071     
   9.60644746085E+03;  0.84428      ; 0.425127     
   9.65129722708E+03;  0.843514     ; 0.423117     
   9.69635638410E+03;  0.844699     ; 0.421143     
   9.74162590948E+03;  0.845644     ; 0.419885     
   9.78710678538E+03;  0.846462     ; 0.419309     
   9.83279999853E+03;  0.848823     ; 0.418134     
   9.87870654027E+03;  0.850613     ; 0.416099     
   9.92482740658E+03;  0.85177      ; 0.414449     
   9.97116359807E+03;  0.851093     ; 0.41327      
   1.00177161200E+04;  0.853879     ; 0.411203     
   1.00644859825E+04;  0.855363     ; 0.410217     
   1.01114742001E+04;  0.856287     ; 0.408988     
   1.01586817922E+04;  0.856259     ; 0.407642     
   1.02061097832E+04;  0.857631     ; 0.406665     
   1.02537592020E+04;  0.858782     ; 0.405006     
   1.03016310823E+04;  0.859457     ; 0.403486     
   1.03497264628E+04;  0.860414     ; 0.401831     
   1.03980463870E+04;  0.861684     ; 0.400769     
   1.04465919031E+04;  0.862652     ; 0.399663     
   1.04953640643E+04;  0.863129     ; 0.397778     
   1.05443639289E+04;  0.863837     ; 0.397191     
   1.05935925599E+04;  0.864743     ; 0.39627      
   1.06430510254E+04;  0.86765      ; 0.396654     
   1.06927403983E+04;  0.868576     ; 0.394228     
   1.07426617568E+04;  0.868984     ; 0.392097     
   1.07928161838E+04;  0.869295     ; 0.389334     
   1.08432047676E+04;  0.870419     ; 0.387779     
   1.08938286014E+04;  0.870439     ; 0.386787     
   1.09446887834E+04;  0.872098     ; 0.385376     
   1.09957864171E+04;  0.872302     ; 0.384334     
   1.10471226110E+04;  0.874218     ; 0.382155     
   1.10986984791E+04;  0.875439     ; 0.381169     
   1.11505151402E+04;  0.876314     ; 0.379765     
   1.12025737185E+04;  0.876339     ; 0.378231     
   1.12548753435E+04;  0.877558     ; 0.377206     
   1.13074211498E+04;  0.878595     ; 0.37575      
   1.13602122776E+04;  0.87952      ; 0.374324     
   1.14132498721E+04;  0.880308     ; 0.373206     
   1.14665350840E+04;  0.880987     ; 0.371766     
   1.15200690694E+04;  0.881892     ; 0.370269     
   1.15738529897E+04;  0.882917     ; 0.368975     
   1.16278880118E+04;  0.884067     ; 0.367825     
   1.16821753081E+04;  0.8847       ; 0.366432     
   1.17367160562E+04;  0.885626     ; 0.364762     
   1.17915114396E+04;  0.886802     ; 0.363569     
   1.18465626470E+04;  0.887735     ; 0.362021     
   1.19018708728E+04;  0.888115     ; 0.361089     
   1.19574373170E+04;  0.888742     ; 0.359918     
   1.20132631851E+04;  0.889981     ; 0.358157     
   1.20693496882E+04;  0.890795     ; 0.357145     
   1.21256980432E+04;  0.891649     ; 0.355465     
   1.21823094727E+04;  0.892511     ; 0.354187     
   1.22391852047E+04;  0.89306      ; 0.352657     
   1.22963264734E+04;  0.893757     ; 0.351729     
   1.23537345184E+04;  0.895103     ; 0.350233     
   1.24114105852E+04;  0.895489     ; 0.349111     
   1.24693559251E+04;  0.896297     ; 0.347736     
   1.25275717953E+04;  0.896962     ; 0.346519     
   1.25860594587E+04;  0.89796      ; 0.345159     
   1.26448201845E+04;  0.89889      ; 0.343886     
   1.27038552473E+04;  0.899622     ; 0.34243      
   1.27631659280E+04;  0.900285     ; 0.341229     
   1.28227535134E+04;  0.900883     ; 0.340114     
   1.28826192962E+04;  0.901776     ; 0.338811     
   1.29427645754E+04;  0.902398     ; 0.337512     
   1.30031906557E+04;  0.903352     ; 0.336038     
   1.30638988481E+04;  0.903811     ; 0.33479      
   1.31248904698E+04;  0.904724     ; 0.333421     
   1.31861668440E+04;  0.905732     ; 0.33182      
   1.32477293002E+04;  0.906233     ; 0.330835     
   1.33095791739E+04;  0.906942     ; 0.329609     
   1.33717178070E+04;  0.907835     ; 0.328439     
   1.34341465477E+04;  0.908163     ; 0.327251     
   1.34968667505E+04;  0.90914      ; 0.325797     
   1.35598797759E+04;  0.910085     ; 0.32427      
   1.36231869913E+04;  0.910645     ; 0.323854     
   1.36867897700E+04;  0.913125     ; 0.323457     
   1.37506894919E+04;  0.916127     ; 0.32294      
   1.38148875435E+04;  0.913888     ; 0.320847     
   1.38793853174E+04;  0.914366     ; 0.319283     
   1.39441842131E+04;  0.915412     ; 0.317244     
   1.40092856364E+04;  0.914383     ; 0.315447     
   1.40746909997E+04;  0.916532     ; 0.314717     
   1.41404017219E+04;  0.916055     ; 0.313716     
   1.42064192289E+04;  0.917594     ; 0.312233     
   1.42727449527E+04;  0.918277     ; 0.311025     
   1.43393803325E+04;  0.919317     ; 0.31002      
   1.44063268138E+04;  0.919924     ; 0.308498     
   1.44735858492E+04;  0.920498     ; 0.307097     
   1.45411588979E+04;  0.921632     ; 0.306458     
   1.46090474259E+04;  0.92219      ; 0.305124     
   1.46772529061E+04;  0.922405     ; 0.303358     
   1.47457768182E+04;  0.923044     ; 0.302702     
   1.48146206490E+04;  0.923476     ; 0.300937     
   1.48837858920E+04;  0.924211     ; 0.299669     
   1.49532740478E+04;  0.924941     ; 0.298429     
   1.50230866240E+04;  0.925317     ; 0.297304     
   1.50932251352E+04;  0.925876     ; 0.295846     
   1.51636911032E+04;  0.926067     ; 0.29523      
   1.52344860567E+04;  0.927281     ; 0.294256     
   1.53056115317E+04;  0.928353     ; 0.2934       
   1.53770690712E+04;  0.928418     ; 0.291781     
   1.54488602256E+04;  0.929342     ; 0.290561     
   1.55209865525E+04;  0.930417     ; 0.289049     
   1.55934496167E+04;  0.930224     ; 0.288072     
   1.56662509902E+04;  0.930018     ; 0.287195     
   1.57393922526E+04;  0.931177     ; 0.285663     
   1.58128749908E+04;  0.931947     ; 0.285034     
   1.58867007989E+04;  0.932552     ; 0.282911     
   1.59608712786E+04;  0.933769     ; 0.282214     
   1.60353880393E+04;  0.933679     ; 0.280917     
   1.61102526974E+04;  0.934036     ; 0.279877     
   1.61854668773E+04;  0.934506     ; 0.278506     
   1.62610322108E+04;  0.935001     ; 0.278001     
   1.63369503372E+04;  0.935218     ; 0.277162     
   1.64132229038E+04;  0.936509     ; 0.275556     
   1.64898515653E+04;  0.936301     ; 0.274511     
   1.65668379841E+04;  0.93693      ; 0.273101     
   1.66441838307E+04;  0.938122     ; 0.271917     
   1.67218907829E+04;  0.939805     ; 0.27193      
   1.67999605267E+04;  0.942135     ; 0.274528     
   1.68783947560E+04;  0.940182     ; 0.269857     
   1.69571951723E+04;  0.938713     ; 0.267103     
   1.70363634853E+04;  0.939669     ; 0.265895     
   1.71159014126E+04;  0.939956     ; 0.26538      
   1.71958106798E+04;  0.940355     ; 0.263927     
   1.72760930207E+04;  0.940864     ; 0.26283      
   1.73567501769E+04;  0.941271     ; 0.261525     
   1.74377838984E+04;  0.94129      ; 0.260379     
   1.75191959432E+04;  0.942456     ; 0.259528     
   1.76009880777E+04;  0.94257      ; 0.258307     
   1.76831620763E+04;  0.943886     ; 0.256977     
   1.77657197220E+04;  0.943844     ; 0.255585     
   1.78486628058E+04;  0.944095     ; 0.2547       
   1.79319931272E+04;  0.944516     ; 0.25387      
   1.80157124941E+04;  0.945333     ; 0.252958     
   1.80998227229E+04;  0.945955     ; 0.252057     
   1.81843256384E+04;  0.946257     ; 0.250465     
   1.82692230739E+04;  0.946896     ; 0.247622     
   1.83545168714E+04;  0.947909     ; 0.247285     
   1.84402088813E+04;  0.948029     ; 0.247316     
   1.85263009628E+04;  0.94747      ; 0.247378     
   1.86127949837E+04;  0.948303     ; 0.245675     
   1.86996928205E+04;  0.948779     ; 0.244396     
   1.87869963586E+04;  0.948981     ; 0.243461     
   1.88747074920E+04;  0.949396     ; 0.242415     
   1.89628281237E+04;  0.949895     ; 0.241346     
   1.90513601656E+04;  0.950452     ; 0.240345     
   1.91403055383E+04;  0.951242     ; 0.239191     
   1.92296661716E+04;  0.95124      ; 0.238241     
   1.93194440042E+04;  0.951751     ; 0.237266     
   1.94096409840E+04;  0.952273     ; 0.236457     
   1.95002590678E+04;  0.952709     ; 0.235075     
   1.95913002216E+04;  0.953123     ; 0.234102     
   1.96827664206E+04;  0.953303     ; 0.232892     
   1.97746596492E+04;  0.953247     ; 0.231943     
   1.98669819012E+04;  0.954019     ; 0.231222     
   1.99597351794E+04;  0.954826     ; 0.230187     
   2.00529214962E+04;  0.965397     ; 0.222891     
   2.01465428734E+04;  0.966119     ; 0.220971     
   2.02406013422E+04;  0.966379     ; 0.22016      
   2.03350989431E+04;  0.966372     ; 0.21911      
   2.04300377265E+04;  0.966949     ; 0.218167     
   2.05254197519E+04;  0.967042     ; 0.217087     
   2.06212470888E+04;  0.967441     ; 0.216219     
   2.07175218163E+04;  0.967943     ; 0.215397     
   2.08142460231E+04;  0.968218     ; 0.214326     
   2.09114218076E+04;  0.968712     ; 0.213492     
   2.10090512782E+04;  0.968978     ; 0.212472     
   2.11071365529E+04;  0.969366     ; 0.211452     
   2.12056797599E+04;  0.969719     ; 0.210582     
   2.13046830370E+04;  0.969532     ; 0.210107     
   2.14041485322E+04;  0.969771     ; 0.209223     
   2.15040784035E+04;  0.970569     ; 0.207777     
   2.16044748189E+04;  0.970848     ; 0.20681      
   2.17053399565E+04;  0.971134     ; 0.20564      
   2.18066760047E+04;  0.971577     ; 0.20484      
   2.19084851621E+04;  0.971756     ; 0.204058     
   2.20107696374E+04;  0.972094     ; 0.202916     
   2.21135316497E+04;  0.972477     ; 0.201992     
   2.22167734287E+04;  0.972877     ; 0.200953     
   2.23204972141E+04;  0.973048     ; 0.20012      
   2.24247052562E+04;  0.973273     ; 0.199029     
   2.25293998161E+04;  0.973693     ; 0.198593     
   2.26345831650E+04;  0.973844     ; 0.197616     
   2.27402575850E+04;  0.974012     ; 0.196378     
   2.28464253688E+04;  0.974604     ; 0.195708     
   2.29530888197E+04;  0.974967     ; 0.194517     
   2.30602502519E+04;  0.975299     ; 0.193573     
   2.31679119902E+04;  0.975448     ; 0.192806     
   2.32760763706E+04;  0.975957     ; 0.191956     
   2.33847457396E+04;  0.975976     ; 0.191037     
   2.34939224549E+04;  0.976232     ; 0.190046     
   2.36036088852E+04;  0.976503     ; 0.189179     
   2.37138074102E+04;  0.976786     ; 0.188353     
   2.38245204208E+04;  0.977053     ; 0.187229     
   2.39357503188E+04;  0.977212     ; 0.186832     
   2.40474995175E+04;  0.97747      ; 0.185873     
   2.41597704414E+04;  0.978208     ; 0.184675     
   2.42725655263E+04;  0.977935     ; 0.182966     
   2.43858872193E+04;  0.977923     ; 0.183085     
   2.44997379790E+04;  0.978424     ; 0.182293     
   2.46141202754E+04;  0.978487     ; 0.180775     
   2.47290365902E+04;  0.979436     ; 0.180063     
   2.48444894165E+04;  0.97913      ; 0.179878     
   2.49604812592E+04;  0.979477     ; 0.178809     
   2.50770146347E+04;  0.980027     ; 0.177489     
   2.51940920714E+04;  0.980271     ; 0.177027     
   2.53117161092E+04;  0.980323     ; 0.175874     
   2.54298893002E+04;  0.980523     ; 0.175203     
   2.55486142082E+04;  0.98069      ; 0.174221     
   2.56678934089E+04;  0.98082      ; 0.17315      
   2.57877294902E+04;  0.981008     ; 0.172315     
   2.59081250521E+04;  0.981518     ; 0.171766     
   2.60290827065E+04;  0.981648     ; 0.170816     
   2.61506050777E+04;  0.981814     ; 0.169912     
   2.62726948023E+04;  0.981989     ; 0.169431     
   2.63953545290E+04;  0.982218     ; 0.168526     
   2.65185869190E+04;  0.982695     ; 0.167784     
   2.66423946460E+04;  0.982755     ; 0.16683      
   2.67667803959E+04;  0.9832       ; 0.165795     
   2.68917468675E+04;  0.983268     ; 0.165289     
   2.70172967719E+04;  0.9833       ; 0.164224     
   2.71434328331E+04;  0.983749     ; 0.163623     
   2.72701577876E+04;  0.983974     ; 0.162527     
   2.73974743848E+04;  0.984048     ; 0.162091     
   2.75253853869E+04;  0.984163     ; 0.16094      
   2.76538935691E+04;  0.984485     ; 0.160254     
   2.77830017193E+04;  0.984753     ; 0.159384     
   2.79127126387E+04;  0.98475      ; 0.158523     
   2.80430291415E+04;  0.984941     ; 0.157649     
   2.81739540548E+04;  0.985502     ; 0.157053     
   2.83054902193E+04;  0.985448     ; 0.156266     
   2.84376404886E+04;  0.98576      ; 0.155456     
   2.85704077300E+04;  0.985969     ; 0.154749     
   2.87037948237E+04;  0.986261     ; 0.154102     
   2.88378046638E+04;  0.986217     ; 0.153334     
   2.89724401576E+04;  0.986342     ; 0.152413     
   2.91077042262E+04;  0.986682     ; 0.151636     
   2.92435998042E+04;  0.986976     ; 0.150988     
   2.93801298399E+04;  0.987087     ; 0.150174     
   2.95172972955E+04;  0.987318     ; 0.149478     
   2.96551051468E+04;  0.987405     ; 0.148745     
   2.97935563837E+04;  0.987795     ; 0.147764     
   2.99326540101E+04;  0.987793     ; 0.147167     
   3.00724010436E+04;  0.987914     ; 0.146261     
   3.02128005161E+04;  0.988208     ; 0.145612     
   3.03538554739E+04;  0.988125     ; 0.144806     
   3.04955689770E+04;  0.988566     ; 0.14401      
   3.06379441001E+04;  0.988757     ; 0.143328     
   3.07809839321E+04;  0.989958     ; 0.142846     
   3.09246915763E+04;  0.989901     ; 0.142035     
   3.10690701505E+04;  0.989291     ; 0.141284     
   3.12141227872E+04;  0.989221     ; 0.140371     
   3.13598526333E+04;  0.98958      ; 0.13979      
   3.15062628506E+04;  0.990545     ; 0.139055     
   3.16533566154E+04;  0.98975      ; 0.138566     
   3.18011371191E+04;  0.989873     ; 0.137708     
   3.19496075679E+04;  0.990251     ; 0.136932     
   3.20987711829E+04;  0.991219     ; 0.13615      
   3.22486312004E+04;  0.991488     ; 0.135563     
   3.23991908715E+04;  0.991496     ; 0.134943     
   3.25504534629E+04;  0.990556     ; 0.13415      
   3.27024222562E+04;  0.99075      ; 0.133446     
   3.28551005485E+04;  0.992135     ; 0.132774     
   3.30084916523E+04;  0.99117      ; 0.132052     
   3.31625988954E+04;  0.991273     ; 0.131216     
   3.33174256213E+04;  0.99167      ; 0.130652     
   3.34729751891E+04;  0.992621     ; 0.129952     
   3.36292509735E+04;  0.991779     ; 0.129433     
   3.37862563651E+04;  0.991818     ; 0.128595     
   3.39439947700E+04;  0.992154     ; 0.127982     
   3.41024696107E+04;  0.993075     ; 0.127339     
   3.42616843252E+04;  0.993294     ; 0.126581     
   3.44216423679E+04;  0.993281     ; 0.125941     
   3.45823472091E+04;  0.993528     ; 0.125464     
   3.47438023354E+04;  0.993475     ; 0.124556     
   3.49060112497E+04;  0.992941     ; 0.123941     
   3.50689774712E+04;  0.992981     ; 0.122999     
   3.52327045355E+04;  0.99325      ; 0.122631     
   3.53971959949E+04;  0.993129     ; 0.121965     
   3.55624554180E+04;  0.994252     ; 0.121567     
   3.57284863903E+04;  0.99444      ; 0.120732     
   3.58952925139E+04;  0.994495     ; 0.119888     
   3.60628774078E+04;  0.994732     ; 0.11937      
   3.62312447078E+04;  0.994936     ; 0.11868      
   3.64003980667E+04;  0.993929     ; 0.118147     
   3.65703411545E+04;  0.994945     ; 0.117461     
   3.67410776581E+04;  0.995145     ; 0.116989     
   3.69126112819E+04;  0.995329     ; 0.116125     
   3.70849457472E+04;  0.99544      ; 0.115579     
   3.72580847931E+04;  0.995545     ; 0.114848     
   3.74320321758E+04;  0.995743     ; 0.11442      
   3.76067916693E+04;  0.994824     ; 0.113691     
   3.77823670651E+04;  0.995843     ; 0.113155     
   3.79587621724E+04;  0.995902     ; 0.112412     
   3.81359808182E+04;  0.996359     ; 0.111682     
   3.83140268474E+04;  0.996152     ; 0.111164     
   3.84929041228E+04;  0.996324     ; 0.110553     
   3.86726165251E+04;  0.995361     ; 0.109664     
   3.88531679535E+04;  0.996623     ; 0.109474     
   3.90345623251E+04;  0.996533     ; 0.108684     
   3.92168035753E+04;  0.996681     ; 0.108179     
   3.93998956580E+04;  0.996911     ; 0.107443     
   3.95838425455E+04;  0.996943     ; 0.106991     
   3.97686482285E+04;  0.997047     ; 0.106476     
   3.99543167167E+04;  0.997112     ; 0.105685     
   4.01408520381E+04;  0.997365     ; 0.105266     
   4.03282582398E+04;  0.99642      ; 0.104555     
   4.05165393876E+04;  0.996855     ; 0.1039       
   4.07056995665E+04;  0.997799     ; 0.10338      
   4.08957428804E+04;  0.997597     ; 0.103014     
   4.10866734523E+04;  0.997699     ; 0.10241      
   4.12784954247E+04;  0.997721     ; 0.101873     
   4.14712129592E+04;  0.998032     ; 0.100952     
   4.16648302370E+04;  0.998182     ; 0.100563     
   4.18593514587E+04;  0.998009     ; 0.100018     
   4.20547808446E+04;  0.998264     ; 0.0994632    
   4.22511226346E+04;  0.998338     ; 0.0988534    
   4.24483810885E+04;  0.998554     ; 0.0983636    
   4.26465604859E+04;  0.998393     ; 0.0976793    
   4.28456651264E+04;  0.998815     ; 0.0969436    
   4.30456993298E+04;  0.998627     ; 0.0966121    
   4.32466674358E+04;  0.99767      ; 0.0960034    
   4.34485738047E+04;  0.99893      ; 0.0955455    
   4.36514228170E+04;  0.998976     ; 0.0950255    
   4.38552188734E+04;  0.999182     ; 0.0944474    
   4.40599663956E+04;  0.999073     ; 0.0936512    
   4.42656698256E+04;  0.999357     ; 0.0932938    
   4.44723336264E+04;  0.999348     ; 0.0925812    
   4.46799622815E+04;  0.999487     ; 0.0922181    
   4.48885602957E+04;  0.999347     ; 0.0917089    
   4.50981321946E+04;  0.999694     ; 0.0912547    
   4.53086825250E+04;  0.999573     ; 0.0905152    
   4.55202158548E+04;  0.999602     ; 0.0900347    
   4.57327367735E+04;  0.999879     ; 0.0893912    
   4.59462498919E+04;  0.999832     ; 0.0891165    
   4.61607598421E+04;  0.998739     ; 0.0883063    
   4.63762712782E+04;  0.998794     ; 0.0879584    
   4.65927888758E+04;  0.999089     ; 0.0871899    
   4.68103173324E+04;  1.00021      ; 0.0867329    
   4.70288613674E+04;  1.00012      ; 0.0862519    
   4.72484257222E+04;  1.0004       ; 0.0859367    
   4.74690151604E+04;  1.00031      ; 0.0854113    
   4.76906344678E+04;  1.00034      ; 0.0848468    
   4.79132884527E+04;  1.00052      ; 0.0843642    
   4.81369819455E+04;  1.0006       ; 0.0835847    
   4.83617197996E+04;  1.00071      ; 0.083044     
   4.85875068907E+04;  1.00059      ; 0.0825596    
   4.88143481173E+04;  1.00095      ; 0.0821032    
   4.90422484011E+04;  1.00104      ; 0.0816507    
   4.92712126863E+04;  1.00111      ; 0.0811934    
   4.95012459405E+04;  1.00014      ; 0.0803213    
   4.97323531545E+04;  1.00006      ; 0.0799688    
   4.99645393422E+04;  1.00026      ; 0.0796182    
   5.01978095410E+04;  1.00114      ; 0.0795677    
   5.04321688120E+04;  1.00028      ; 0.078732     
   5.06676222396E+04;  1.00098      ; 0.0782679    
   5.09041749322E+04;  1.00133      ; 0.0775819    
