
  ZVR, 2.05

  stimulus-start        ; stimulus-stop       ; stimulus-unit       ; nof-points; parameter-type; impedance-ohm
  9.00000000000E+03     ; 1.00000000000E+08   ; Hz                  ; 2001      ; S11           ; 50        

  conversion            ; time-domain         ; data-format         ; param-unit; smoothing     ; trace-math
  S                     ; none                ; RI                  ; none      ; none          ; none

  sweep-mode-type       ; notlinear-meas-mode 
  FUNDAMENTAL           ; none                


  freq              ;  reS11        ; imS11         
   9.00000000000E+03;  0.943485     ; 0.157131     
   9.04201843582E+03;  0.944842     ; 0.159091     
   9.08423304375E+03;  0.948436     ; 0.158755     
   9.12664473965E+03;  0.951478     ; 0.158507     
   9.16925444368E+03;  0.947822     ; 0.162078     
   9.21206308028E+03;  0.948033     ; 0.15769      
   9.25507157820E+03;  0.948497     ; 0.15436      
   9.29828087055E+03;  0.947399     ; 0.155015     
   9.34169189477E+03;  0.948393     ; 0.154405     
   9.38530559270E+03;  0.948868     ; 0.153924     
   9.42912291056E+03;  0.948831     ; 0.153502     
   9.47314479899E+03;  0.948863     ; 0.153805     
   9.51737221307E+03;  0.950224     ; 0.151986     
   9.56180611235E+03;  0.949429     ; 0.152732     
   9.60644746085E+03;  0.950172     ; 0.151768     
   9.65129722708E+03;  0.95061      ; 0.151809     
   9.69635638410E+03;  0.950053     ; 0.151625     
   9.74162590948E+03;  0.950157     ; 0.150907     
   9.78710678538E+03;  0.950922     ; 0.150836     
   9.83279999853E+03;  0.952294     ; 0.150151     
   9.87870654027E+03;  0.951767     ; 0.150259     
   9.92482740658E+03;  0.953254     ; 0.1486       
   9.97116359807E+03;  0.952519     ; 0.14917      
   1.00177161200E+04;  0.952222     ; 0.147999     
   1.00644859825E+04;  0.9536       ; 0.146948     
   1.01114742001E+04;  0.95396      ; 0.147554     
   1.01586817922E+04;  0.954679     ; 0.147503     
   1.02061097832E+04;  0.954582     ; 0.146638     
   1.02537592020E+04;  0.954771     ; 0.14619      
   1.03016310823E+04;  0.955054     ; 0.145434     
   1.03497264628E+04;  0.955158     ; 0.145135     
   1.03980463870E+04;  0.955561     ; 0.144484     
   1.04465919031E+04;  0.955935     ; 0.14428      
   1.04953640643E+04;  0.955918     ; 0.144461     
   1.05443639289E+04;  0.955858     ; 0.143946     
   1.05935925599E+04;  0.957032     ; 0.143511     
   1.06430510254E+04;  0.959406     ; 0.144622     
   1.06927403983E+04;  0.959483     ; 0.144215     
   1.07426617568E+04;  0.958315     ; 0.142509     
   1.07928161838E+04;  0.95778      ; 0.141031     
   1.08432047676E+04;  0.958034     ; 0.14045      
   1.08938286014E+04;  0.958272     ; 0.140761     
   1.09446887834E+04;  0.959203     ; 0.139754     
   1.09957864171E+04;  0.959032     ; 0.139897     
   1.10471226110E+04;  0.95902      ; 0.138752     
   1.10986984791E+04;  0.959678     ; 0.138063     
   1.11505151402E+04;  0.959983     ; 0.137718     
   1.12025737185E+04;  0.960015     ; 0.137986     
   1.12548753435E+04;  0.960457     ; 0.137031     
   1.13074211498E+04;  0.960746     ; 0.136636     
   1.13602122776E+04;  0.961176     ; 0.136376     
   1.14132498721E+04;  0.961584     ; 0.135769     
   1.14665350840E+04;  0.961586     ; 0.135697     
   1.15200690694E+04;  0.961977     ; 0.135077     
   1.15738529897E+04;  0.962158     ; 0.13462      
   1.16278880118E+04;  0.962926     ; 0.134058     
   1.16821753081E+04;  0.962735     ; 0.133655     
   1.17367160562E+04;  0.963104     ; 0.133249     
   1.17915114396E+04;  0.963542     ; 0.132588     
   1.18465626470E+04;  0.963449     ; 0.132414     
   1.19018708728E+04;  0.963861     ; 0.132079     
   1.19574373170E+04;  0.96422      ; 0.131711     
   1.20132631851E+04;  0.964557     ; 0.130956     
   1.20693496882E+04;  0.964961     ; 0.130655     
   1.21256980432E+04;  0.96474      ; 0.130612     
   1.21823094727E+04;  0.965018     ; 0.129817     
   1.22391852047E+04;  0.965431     ; 0.129379     
   1.22963264734E+04;  0.965953     ; 0.128638     
   1.23537345184E+04;  0.965984     ; 0.128386     
   1.24114105852E+04;  0.966361     ; 0.128016     
   1.24693559251E+04;  0.966718     ; 0.127533     
   1.25275717953E+04;  0.966863     ; 0.127019     
   1.25860594587E+04;  0.967075     ; 0.126737     
   1.26448201845E+04;  0.967529     ; 0.126263     
   1.27038552473E+04;  0.967776     ; 0.125718     
   1.27631659280E+04;  0.967921     ; 0.125342     
   1.28227535134E+04;  0.96807      ; 0.125076     
   1.28826192962E+04;  0.968304     ; 0.124509     
   1.29427645754E+04;  0.968525     ; 0.12419      
   1.30031906557E+04;  0.968701     ; 0.123788     
   1.30638988481E+04;  0.969026     ; 0.123029     
   1.31248904698E+04;  0.96946      ; 0.122833     
   1.31861668440E+04;  0.969533     ; 0.122503     
   1.32477293002E+04;  0.969969     ; 0.1219       
   1.33095791739E+04;  0.970037     ; 0.121301     
   1.33717178070E+04;  0.970245     ; 0.121095     
   1.34341465477E+04;  0.97062      ; 0.120624     
   1.34968667505E+04;  0.970741     ; 0.12016      
   1.35598797759E+04;  0.971091     ; 0.11942      
   1.36231869913E+04;  0.97172      ; 0.120019     
   1.36867897700E+04;  0.974945     ; 0.119741     
   1.37506894919E+04;  0.976514     ; 0.119229     
   1.38148875435E+04;  0.973462     ; 0.119082     
   1.38793853174E+04;  0.973785     ; 0.117761     
   1.39441842131E+04;  0.973541     ; 0.116891     
   1.40092856364E+04;  0.973517     ; 0.116735     
   1.40746909997E+04;  0.97407      ; 0.116661     
   1.41404017219E+04;  0.974342     ; 0.115917     
   1.42064192289E+04;  0.974286     ; 0.115597     
   1.42727449527E+04;  0.974524     ; 0.115195     
   1.43393803325E+04;  0.974908     ; 0.114802     
   1.44063268138E+04;  0.975119     ; 0.114231     
   1.44735858492E+04;  0.975029     ; 0.113758     
   1.45411588979E+04;  0.975799     ; 0.113236     
   1.46090474259E+04;  0.976006     ; 0.112615     
   1.46772529061E+04;  0.975541     ; 0.11252      
   1.47457768182E+04;  0.976001     ; 0.112375     
   1.48146206490E+04;  0.975803     ; 0.111546     
   1.48837858920E+04;  0.976302     ; 0.110853     
   1.49532740478E+04;  0.976687     ; 0.110374     
   1.50230866240E+04;  0.976781     ; 0.110179     
   1.50932251352E+04;  0.976651     ; 0.110014     
   1.51636911032E+04;  0.977131     ; 0.11023      
   1.52344860567E+04;  0.976799     ; 0.109274     
   1.53056115317E+04;  0.977775     ; 0.10896      
   1.53770690712E+04;  0.978184     ; 0.109137     
   1.54488602256E+04;  0.978314     ; 0.108072     
   1.55209865525E+04;  0.978975     ; 0.107131     
   1.55934496167E+04;  0.978807     ; 0.107342     
   1.56662509902E+04;  0.978655     ; 0.107306     
   1.57393922526E+04;  0.977829     ; 0.106034     
   1.58128749908E+04;  0.978537     ; 0.105709     
   1.58867007989E+04;  0.978981     ; 0.105917     
   1.59608712786E+04;  0.979533     ; 0.1046       
   1.60353880393E+04;  0.979502     ; 0.104739     
   1.61102526974E+04;  0.979794     ; 0.104356     
   1.61854668773E+04;  0.979829     ; 0.104052     
   1.62610322108E+04;  0.980376     ; 0.103142     
   1.63369503372E+04;  0.980867     ; 0.10339      
   1.64132229038E+04;  0.979985     ; 0.102536     
   1.64898515653E+04;  0.98036      ; 0.101979     
   1.65668379841E+04;  0.98009      ; 0.10196      
   1.66441838307E+04;  0.981413     ; 0.101435     
   1.67218907829E+04;  0.983197     ; 0.101879     
   1.67999605267E+04;  0.985862     ; 0.104349     
   1.68783947560E+04;  0.982282     ; 0.101046     
   1.69571951723E+04;  0.981028     ; 0.100529     
   1.70363634853E+04;  0.98118      ; 0.100146     
   1.71159014126E+04;  0.981576     ; 0.0992394    
   1.71958106798E+04;  0.981437     ; 0.098962     
   1.72760930207E+04;  0.981493     ; 0.098472     
   1.73567501769E+04;  0.981198     ; 0.09796      
   1.74377838984E+04;  0.981269     ; 0.0980591    
   1.75191959432E+04;  0.981575     ; 0.0973756    
   1.76009880777E+04;  0.981863     ; 0.0970765    
   1.76831620763E+04;  0.982683     ; 0.095872     
   1.77657197220E+04;  0.982334     ; 0.0956739    
   1.78486628058E+04;  0.982361     ; 0.0954657    
   1.79319931272E+04;  0.982482     ; 0.0954199    
   1.80157124941E+04;  0.98312      ; 0.0949698    
   1.80998227229E+04;  0.983431     ; 0.0946373    
   1.81843256384E+04;  0.983276     ; 0.0938747    
   1.82692230739E+04;  0.983208     ; 0.0916867    
   1.83545168714E+04;  0.984187     ; 0.0917261    
   1.84402088813E+04;  0.98433      ; 0.0925506    
   1.85263009628E+04;  0.983688     ; 0.0936436    
   1.86127949837E+04;  0.984148     ; 0.0924005    
   1.86996928205E+04;  0.984144     ; 0.0920657    
   1.87869963586E+04;  0.984295     ; 0.0917909    
   1.88747074920E+04;  0.984405     ; 0.0913613    
   1.89628281237E+04;  0.984437     ; 0.0909775    
   1.90513601656E+04;  0.98479      ; 0.0904619    
   1.91403055383E+04;  0.985062     ; 0.0899195    
   1.92296661716E+04;  0.985042     ; 0.0897923    
   1.93194440042E+04;  0.985374     ; 0.089507     
   1.94096409840E+04;  0.985754     ; 0.0893944    
   1.95002590678E+04;  0.985687     ; 0.0887297    
   1.95913002216E+04;  0.985851     ; 0.0881368    
   1.96827664206E+04;  0.985767     ; 0.0878173    
   1.97746596492E+04;  0.985519     ; 0.0877677    
   1.98669819012E+04;  0.986175     ; 0.0873582    
   1.99597351794E+04;  0.986495     ; 0.0870438    
   2.00529214962E+04;  0.995788     ; 0.0767867    
   2.01465428734E+04;  0.99549      ; 0.0773909    
   2.02406013422E+04;  0.995636     ; 0.0771731    
   2.03350989431E+04;  0.99571      ; 0.0767061    
   2.04300377265E+04;  0.995844     ; 0.0764303    
   2.05254197519E+04;  0.995822     ; 0.0759026    
   2.06212470888E+04;  0.99604      ; 0.0757879    
   2.07175218163E+04;  0.99637      ; 0.0753072    
   2.08142460231E+04;  0.996313     ; 0.075151     
   2.09114218076E+04;  0.996408     ; 0.0748849    
   2.10090512782E+04;  0.996477     ; 0.0746253    
   2.11071365529E+04;  0.996684     ; 0.0742497    
   2.12056797599E+04;  0.997038     ; 0.0740252    
   2.13046830370E+04;  0.996685     ; 0.073962     
   2.14041485322E+04;  0.996793     ; 0.0738897    
   2.15040784035E+04;  0.997315     ; 0.0727392    
   2.16044748189E+04;  0.997419     ; 0.0726223    
   2.17053399565E+04;  0.997253     ; 0.0720625    
   2.18066760047E+04;  0.997681     ; 0.0720387    
   2.19084851621E+04;  0.997762     ; 0.0714849    
   2.20107696374E+04;  0.997868     ; 0.0711961    
   2.21135316497E+04;  0.997625     ; 0.0708309    
   2.22167734287E+04;  0.997885     ; 0.0704462    
   2.23204972141E+04;  0.997884     ; 0.0700273    
   2.24247052562E+04;  0.998045     ; 0.0697985    
   2.25293998161E+04;  0.99811      ; 0.0693281    
   2.26345831650E+04;  0.998478     ; 0.0693302    
   2.27402575850E+04;  0.998457     ; 0.0689406    
   2.28464253688E+04;  0.998484     ; 0.068547     
   2.29530888197E+04;  0.998268     ; 0.0683226    
   2.30602502519E+04;  0.998665     ; 0.0680934    
   2.31679119902E+04;  0.998701     ; 0.0676589    
   2.32760763706E+04;  0.998994     ; 0.0674595    
   2.33847457396E+04;  0.999125     ; 0.0671182    
   2.34939224549E+04;  0.99905      ; 0.0666303    
   2.36036088852E+04;  0.999177     ; 0.0664207    
   2.37138074102E+04;  0.999434     ; 0.0661171    
   2.38245204208E+04;  0.999174     ; 0.0657215    
   2.39357503188E+04;  0.999792     ; 0.0652894    
   2.40474995175E+04;  0.999822     ; 0.0649158    
   2.41597704414E+04;  0.999625     ; 0.0646355    
   2.42725655263E+04;  0.999199     ; 0.0651802    
   2.43858872193E+04;  0.99945      ; 0.0635498    
   2.44997379790E+04;  0.99948      ; 0.0632613    
   2.46141202754E+04;  0.999571     ; 0.0643179    
   2.47290365902E+04;  1.00014      ; 0.062992     
   2.48444894165E+04;  1.00031      ; 0.0626335    
   2.49604812592E+04;  1.00041      ; 0.0624333    
   2.50770146347E+04;  1.00015      ; 0.0623966    
   2.51940920714E+04;  1.00084      ; 0.0617956    
   2.53117161092E+04;  1.00034      ; 0.0617446    
   2.54298893002E+04;  1.00059      ; 0.0614138    
   2.55486142082E+04;  1.0005       ; 0.0610322    
   2.56678934089E+04;  1.0006       ; 0.0609056    
   2.57877294902E+04;  1.00086      ; 0.0604026    
   2.59081250521E+04;  1.00089      ; 0.0599787    
   2.60290827065E+04;  1.00079      ; 0.059936     
   2.61506050777E+04;  1.00097      ; 0.0593437    
   2.62726948023E+04;  1.00113      ; 0.0594858    
   2.63953545290E+04;  1.00127      ; 0.0591264    
   2.65185869190E+04;  1.00133      ; 0.0584876    
   2.66423946460E+04;  1.00151      ; 0.0581475    
   2.67667803959E+04;  1.00154      ; 0.0579216    
   2.68917468675E+04;  1.00164      ; 0.057669     
   2.70172967719E+04;  1.00159      ; 0.0575838    
   2.71434328331E+04;  1.00172      ; 0.0569578    
   2.72701577876E+04;  1.00172      ; 0.0569932    
   2.73974743848E+04;  1.00179      ; 0.0562865    
   2.75253853869E+04;  1.00169      ; 0.0561922    
   2.76538935691E+04;  1.00186      ; 0.0560775    
   2.77830017193E+04;  1.00221      ; 0.0557128    
   2.79127126387E+04;  1.00206      ; 0.0554009    
   2.80430291415E+04;  1.00218      ; 0.0550124    
   2.81739540548E+04;  1.00228      ; 0.0548592    
   2.83054902193E+04;  1.00243      ; 0.0545417    
   2.84376404886E+04;  1.00231      ; 0.0542086    
   2.85704077300E+04;  1.00258      ; 0.0539579    
   2.87037948237E+04;  1.00271      ; 0.0536732    
   2.88378046638E+04;  1.00288      ; 0.053311     
   2.89724401576E+04;  1.00276      ; 0.0531993    
   2.91077042262E+04;  1.00278      ; 0.0527925    
   2.92435998042E+04;  1.0031       ; 0.0524755    
   2.93801298399E+04;  1.00307      ; 0.0521649    
   2.95172972955E+04;  1.00318      ; 0.0520713    
   2.96551051468E+04;  1.00301      ; 0.0517265    
   2.97935563837E+04;  1.00323      ; 0.0514954    
   2.99326540101E+04;  1.00301      ; 0.0511695    
   3.00724010436E+04;  1.00336      ; 0.0510639    
   3.02128005161E+04;  1.00328      ; 0.0505657    
   3.03538554739E+04;  1.00336      ; 0.0503066    
   3.04955689770E+04;  1.00332      ; 0.050046     
   3.06379441001E+04;  1.00354      ; 0.0498114    
   3.07809839321E+04;  1.00345      ; 0.0497058    
   3.09246915763E+04;  1.00464      ; 0.0494832    
   3.10690701505E+04;  1.00371      ; 0.0490589    
   3.12141227872E+04;  1.00386      ; 0.0487745    
   3.13598526333E+04;  1.00383      ; 0.0484642    
   3.15062628506E+04;  1.00402      ; 0.0482995    
   3.16533566154E+04;  1.00388      ; 0.0481381    
   3.18011371191E+04;  1.00406      ; 0.0476879    
   3.19496075679E+04;  1.00408      ; 0.0474858    
   3.20987711829E+04;  1.00416      ; 0.0471477    
   3.22486312004E+04;  1.00435      ; 0.0470246    
   3.23991908715E+04;  1.00417      ; 0.0466779    
   3.25504534629E+04;  1.00425      ; 0.0465556    
   3.27024222562E+04;  1.0041       ; 0.0462927    
   3.28551005485E+04;  1.00445      ; 0.046032     
   3.30084916523E+04;  1.00527      ; 0.0456737    
   3.31625988954E+04;  1.00549      ; 0.0455011    
   3.33174256213E+04;  1.00456      ; 0.0452179    
   3.34729751891E+04;  1.00473      ; 0.0450751    
   3.36292509735E+04;  1.00456      ; 0.0446072    
   3.37862563651E+04;  1.00484      ; 0.0443698    
   3.39439947700E+04;  1.00476      ; 0.0440324    
   3.41024696107E+04;  1.00591      ; 0.0439129    
   3.42616843252E+04;  1.00491      ; 0.0437221    
   3.44216423679E+04;  1.00496      ; 0.0434004    
   3.45823472091E+04;  1.00585      ; 0.043431     
   3.47438023354E+04;  1.00592      ; 0.0431024    
   3.49060112497E+04;  1.00596      ; 0.0427082    
   3.50689774712E+04;  1.00613      ; 0.0424276    
   3.52327045355E+04;  1.00526      ; 0.0423461    
   3.53971959949E+04;  1.0061       ; 0.0420735    
   3.55624554180E+04;  1.0063       ; 0.0419556    
   3.57284863903E+04;  1.00632      ; 0.0415775    
   3.58952925139E+04;  1.00632      ; 0.0413424    
   3.60628774078E+04;  1.00535      ; 0.0410292    
   3.62312447078E+04;  1.00665      ; 0.0409254    
   3.64003980667E+04;  1.00562      ; 0.0408828    
   3.65703411545E+04;  1.00638      ; 0.0408196    
   3.67410776581E+04;  1.00644      ; 0.0402755    
   3.69126112819E+04;  1.00683      ; 0.0400758    
   3.70849457472E+04;  1.00657      ; 0.0395978    
   3.72580847931E+04;  1.00593      ; 0.0395454    
   3.74320321758E+04;  1.00581      ; 0.0389826    
   3.76067916693E+04;  1.00684      ; 0.0391567    
   3.77823670651E+04;  1.00664      ; 0.0389427    
   3.79587621724E+04;  1.00682      ; 0.0386127    
   3.81359808182E+04;  1.00694      ; 0.0382619    
   3.83140268474E+04;  1.00695      ; 0.0382094    
   3.84929041228E+04;  1.00605      ; 0.0379671    
   3.86726165251E+04;  1.00588      ; 0.0379453    
   3.88531679535E+04;  1.00616      ; 0.0376846    
   3.90345623251E+04;  1.00688      ; 0.0372127    
   3.92168035753E+04;  1.00735      ; 0.0369669    
   3.93998956580E+04;  1.00732      ; 0.0366785    
   3.95838425455E+04;  1.00716      ; 0.0365067    
   3.97686482285E+04;  1.00724      ; 0.0364006    
   3.99543167167E+04;  1.00642      ; 0.0363378    
   4.01408520381E+04;  1.00647      ; 0.0359153    
   4.03282582398E+04;  1.00732      ; 0.0358114    
   4.05165393876E+04;  1.0074       ; 0.0354059    
   4.07056995665E+04;  1.00769      ; 0.0352828    
   4.08957428804E+04;  1.0075       ; 0.035196     
   4.10866734523E+04;  1.00753      ; 0.0349596    
   4.12784954247E+04;  1.00753      ; 0.0346764    
   4.14712129592E+04;  1.00659      ; 0.0344495    
   4.16648302370E+04;  1.00752      ; 0.0342016    
   4.18593514587E+04;  1.00764      ; 0.0340603    
   4.20547808446E+04;  1.00769      ; 0.0338413    
   4.22511226346E+04;  1.00769      ; 0.033724     
   4.24483810885E+04;  1.00766      ; 0.0335914    
   4.26465604859E+04;  1.00776      ; 0.0331685    
   4.28456651264E+04;  1.00741      ; 0.0330884    
   4.30456993298E+04;  1.00781      ; 0.0326546    
   4.32466674358E+04;  1.00797      ; 0.0327       
   4.34485738047E+04;  1.00793      ; 0.032419     
   4.36514228170E+04;  1.00812      ; 0.0323536    
   4.38552188734E+04;  1.00792      ; 0.0320373    
   4.40599663956E+04;  1.00799      ; 0.0318094    
   4.42656698256E+04;  1.00822      ; 0.0316358    
   4.44723336264E+04;  1.0072       ; 0.0316142    
   4.46799622815E+04;  1.00722      ; 0.0310003    
   4.48885602957E+04;  1.00814      ; 0.0311396    
   4.50981321946E+04;  1.00815      ; 0.0308136    
   4.53086825250E+04;  1.0082       ; 0.0307086    
   4.55202158548E+04;  1.00819      ; 0.0303221    
   4.57327367735E+04;  1.00855      ; 0.0300913    
   4.59462498919E+04;  1.00825      ; 0.0302661    
   4.61607598421E+04;  1.00819      ; 0.0301011    
   4.63762712782E+04;  1.00813      ; 0.0298909    
   4.65927888758E+04;  1.00831      ; 0.0294442    
   4.68103173324E+04;  1.00852      ; 0.0292346    
   4.70288613674E+04;  1.00828      ; 0.0290738    
   4.72484257222E+04;  1.00879      ; 0.0289931    
   4.74690151604E+04;  1.00835      ; 0.0288024    
   4.76906344678E+04;  1.00764      ; 0.0286352    
   4.79132884527E+04;  1.00766      ; 0.0281885    
   4.81369819455E+04;  1.00864      ; 0.0282414    
   4.83617197996E+04;  1.00867      ; 0.0279233    
   4.85875068907E+04;  1.00875      ; 0.0277919    
   4.88143481173E+04;  1.00883      ; 0.0275711    
   4.90422484011E+04;  1.00876      ; 0.0275258    
   4.92712126863E+04;  1.00857      ; 0.0272185    
   4.95012459405E+04;  1.00859      ; 0.0271734    
   4.97323531545E+04;  1.00872      ; 0.0267524    
   4.99645393422E+04;  1.00876      ; 0.0266476    
   5.01978095410E+04;  1.00866      ; 0.0262101    
   5.04321688120E+04;  1.0091       ; 0.0262904    
   5.06676222396E+04;  1.00904      ; 0.025985     
   5.09041749322E+04;  1.00862      ; 0.0261564    
