
  ZVR, 2.05

  stimulus-start        ; stimulus-stop       ; stimulus-unit       ; nof-points; parameter-type; impedance-ohm
  9.00000000000E+03     ; 1.00000000000E+08   ; Hz                  ; 2001      ; S11           ; 50        

  conversion            ; time-domain         ; data-format         ; param-unit; smoothing     ; trace-math
  S                     ; none                ; RI                  ; none      ; none          ; none

  sweep-mode-type       ; notlinear-meas-mode 
  FUNDAMENTAL           ; none                


  freq              ;  reS11        ; imS11         
   9.00000000000E+03; -0.965747     ;-0.00371569   
   9.04201843582E+03; -0.9662       ;-0.00302127   
   9.08423304375E+03; -0.965853     ;-0.00225699   
   9.12664473965E+03; -0.965578     ;-0.00175297   
   9.16925444368E+03; -0.967528     ;-0.00228462   
   9.21206308028E+03; -0.966377     ;-0.00288808   
   9.25507157820E+03; -0.965347     ;-0.00339451   
   9.29828087055E+03; -0.965712     ;-0.00368759   
   9.34169189477E+03; -0.96587      ;-0.00335148   
   9.38530559270E+03; -0.965947     ;-0.00338501   
   9.42912291056E+03; -0.965792     ;-0.00333747   
   9.47314479899E+03; -0.965569     ;-0.00375631   
   9.51737221307E+03; -0.965886     ;-0.00406975   
   9.56180611235E+03; -0.965849     ;-0.00358254   
   9.60644746085E+03; -0.966336     ;-0.00428283   
   9.65129722708E+03; -0.96588      ;-0.00425732   
   9.69635638410E+03; -0.965819     ;-0.00424451   
   9.74162590948E+03; -0.96584      ;-0.00424692   
   9.78710678538E+03; -0.966034     ;-0.00451678   
   9.83279999853E+03; -0.966611     ;-0.00427803   
   9.87870654027E+03; -0.966345     ;-0.00384626   
   9.92482740658E+03; -0.966151     ;-0.00442702   
   9.97116359807E+03; -0.966221     ;-0.00420719   
   1.00177161200E+04; -0.966535     ;-0.00446892   
   1.00644859825E+04; -0.96628      ;-0.00454402   
   1.01114742001E+04; -0.966394     ;-0.00434804   
   1.01586817922E+04; -0.96634      ;-0.00421724   
   1.02061097832E+04; -0.96637      ;-0.00458157   
   1.02537592020E+04; -0.966536     ;-0.00453874   
   1.03016310823E+04; -0.966574     ;-0.00468594   
   1.03497264628E+04; -0.966758     ;-0.00477538   
   1.03980463870E+04; -0.966669     ;-0.00480753   
   1.04465919031E+04; -0.966727     ;-0.00476533   
   1.04953640643E+04; -0.967203     ;-0.00468484   
   1.05443639289E+04; -0.966943     ;-0.004757     
   1.05935925599E+04; -0.967099     ;-0.00479299   
   1.06430510254E+04; -0.966627     ;-0.00379527   
   1.06927403983E+04; -0.967139     ;-0.00387138   
   1.07426617568E+04; -0.967476     ;-0.00463378   
   1.07928161838E+04; -0.967542     ;-0.00513037   
   1.08432047676E+04; -0.96741      ;-0.00500463   
   1.08938286014E+04; -0.96693      ;-0.00502707   
   1.09446887834E+04; -0.967535     ;-0.00525254   
   1.09957864171E+04; -0.967035     ;-0.00516678   
   1.10471226110E+04; -0.967489     ;-0.00514536   
   1.10986984791E+04; -0.967497     ;-0.00525987   
   1.11505151402E+04; -0.967556     ;-0.0052707    
   1.12025737185E+04; -0.96749      ;-0.00515831   
   1.12548753435E+04; -0.967686     ;-0.00555052   
   1.13074211498E+04; -0.967764     ;-0.00537682   
   1.13602122776E+04; -0.967793     ;-0.00545704   
   1.14132498721E+04; -0.967724     ;-0.00547817   
   1.14665350840E+04; -0.967837     ;-0.00536385   
   1.15200690694E+04; -0.967997     ;-0.00549144   
   1.15738529897E+04; -0.967981     ;-0.00556885   
   1.16278880118E+04; -0.96811      ;-0.00571449   
   1.16821753081E+04; -0.968039     ;-0.00561881   
   1.17367160562E+04; -0.968254     ;-0.00556229   
   1.17915114396E+04; -0.968482     ;-0.0056518    
   1.18465626470E+04; -0.968555     ;-0.00559641   
   1.19018708728E+04; -0.968405     ;-0.0055394    
   1.19574373170E+04; -0.968396     ;-0.00591812   
   1.20132631851E+04; -0.968553     ;-0.00559707   
   1.20693496882E+04; -0.968662     ;-0.00595896   
   1.21256980432E+04; -0.968554     ;-0.00598034   
   1.21823094727E+04; -0.968557     ;-0.00599213   
   1.22391852047E+04; -0.968781     ;-0.00592716   
   1.22963264734E+04; -0.968814     ;-0.00579827   
   1.23537345184E+04; -0.9689       ;-0.00596842   
   1.24114105852E+04; -0.968886     ;-0.00588417   
   1.24693559251E+04; -0.96905      ;-0.00585973   
   1.25275717953E+04; -0.969074     ;-0.00586526   
   1.25860594587E+04; -0.969098     ;-0.00597024   
   1.26448201845E+04; -0.969135     ;-0.00598791   
   1.27038552473E+04; -0.969281     ;-0.00598416   
   1.27631659280E+04; -0.969337     ;-0.00604507   
   1.28227535134E+04; -0.969372     ;-0.00601265   
   1.28826192962E+04; -0.969526     ;-0.00601043   
   1.29427645754E+04; -0.969483     ;-0.00599329   
   1.30031906557E+04; -0.969644     ;-0.00617884   
   1.30638988481E+04; -0.969576     ;-0.00604612   
   1.31248904698E+04; -0.969842     ;-0.00611471   
   1.31861668440E+04; -0.96991      ;-0.00617184   
   1.32477293002E+04; -0.969936     ;-0.00625928   
   1.33095791739E+04; -0.969927     ;-0.00609346   
   1.33717178070E+04; -0.969921     ;-0.00636339   
   1.34341465477E+04; -0.970632     ;-0.00651628   
   1.34968667505E+04; -0.970754     ;-0.0066154    
   1.35598797759E+04; -0.970874     ;-0.00671561   
   1.36231869913E+04; -0.970742     ;-0.00642924   
   1.36867897700E+04; -0.969957     ;-0.00648777   
   1.37506894919E+04; -0.969165     ;-0.00610721   
   1.38148875435E+04; -0.971081     ;-0.00639537   
   1.38793853174E+04; -0.971248     ;-0.00649129   
   1.39441842131E+04; -0.971093     ;-0.00658287   
   1.40092856364E+04; -0.971267     ;-0.00681607   
   1.40746909997E+04; -0.971343     ;-0.00673944   
   1.41404017219E+04; -0.971393     ;-0.00664726   
   1.42064192289E+04; -0.971393     ;-0.00669712   
   1.42727449527E+04; -0.971505     ;-0.00673899   
   1.43393803325E+04; -0.971519     ;-0.00671341   
   1.44063268138E+04; -0.971721     ;-0.00662278   
   1.44735858492E+04; -0.971611     ;-0.00680593   
   1.45411588979E+04; -0.971646     ;-0.00665285   
   1.46090474259E+04; -0.971838     ;-0.00664757   
   1.46772529061E+04; -0.971848     ;-0.00674248   
   1.47457768182E+04; -0.971929     ;-0.00645141   
   1.48146206490E+04; -0.972033     ;-0.00663812   
   1.48837858920E+04; -0.972299     ;-0.0066688    
   1.49532740478E+04; -0.972293     ;-0.00674056   
   1.50230866240E+04; -0.972468     ;-0.00680349   
   1.50932251352E+04; -0.972396     ;-0.00678483   
   1.51636911032E+04; -0.972571     ;-0.00672153   
   1.52344860567E+04; -0.972479     ;-0.00626984   
   1.53056115317E+04; -0.972417     ;-0.00641232   
   1.53770690712E+04; -0.972513     ;-0.00675116   
   1.54488602256E+04; -0.972565     ;-0.0065884    
   1.55209865525E+04; -0.972743     ;-0.00683516   
   1.55934496167E+04; -0.972886     ;-0.00669088   
   1.56662509902E+04; -0.973121     ;-0.00650228   
   1.57393922526E+04; -0.973096     ;-0.00632486   
   1.58128749908E+04; -0.973074     ;-0.00622769   
   1.58867007989E+04; -0.972724     ;-0.00648842   
   1.59608712786E+04; -0.97258      ;-0.00619934   
   1.60353880393E+04; -0.972616     ;-0.00618182   
   1.61102526974E+04; -0.97273      ;-0.00615252   
   1.61854668773E+04; -0.972821     ;-0.00618301   
   1.62610322108E+04; -0.973046     ;-0.00601395   
   1.63369503372E+04; -0.97315      ;-0.00591372   
   1.64132229038E+04; -0.972987     ;-0.00588043   
   1.64898515653E+04; -0.97332      ;-0.00598706   
   1.65668379841E+04; -0.973272     ;-0.00599002   
   1.66441838307E+04; -0.972937     ;-0.00589732   
   1.67218907829E+04; -0.97225      ;-0.00552173   
   1.67999605267E+04; -0.971445     ;-0.00457308   
   1.68783947560E+04; -0.972675     ;-0.00552065   
   1.69571951723E+04; -0.973553     ;-0.00600965   
   1.70363634853E+04; -0.973427     ;-0.00594968   
   1.71159014126E+04; -0.973613     ;-0.00575975   
   1.71958106798E+04; -0.973748     ;-0.0058504    
   1.72760930207E+04; -0.973709     ;-0.00584459   
   1.73567501769E+04; -0.973795     ;-0.0060728    
   1.74377838984E+04; -0.973985     ;-0.00603054   
   1.75191959432E+04; -0.973901     ;-0.0059115    
   1.76009880777E+04; -0.973968     ;-0.00589423   
   1.76831620763E+04; -0.973858     ;-0.0056888    
   1.77657197220E+04; -0.973809     ;-0.00589731   
   1.78486628058E+04; -0.974099     ;-0.00583176   
   1.79319931272E+04; -0.974251     ;-0.0057357    
   1.80157124941E+04; -0.974294     ;-0.00561921   
   1.80998227229E+04; -0.974262     ;-0.00550261   
   1.81843256384E+04; -0.974246     ;-0.00567722   
   1.82692230739E+04; -0.973694     ;-0.00602665   
   1.83545168714E+04; -0.973841     ;-0.00573055   
   1.84402088813E+04; -0.974278     ;-0.00550301   
   1.85263009628E+04; -0.974977     ;-0.00544758   
   1.86127949837E+04; -0.974747     ;-0.00542528   
   1.86996928205E+04; -0.974767     ;-0.0054666    
   1.87869963586E+04; -0.97481      ;-0.00531431   
   1.88747074920E+04; -0.975003     ;-0.00523362   
   1.89628281237E+04; -0.975028     ;-0.00528301   
   1.90513601656E+04; -0.975006     ;-0.00524419   
   1.91403055383E+04; -0.974976     ;-0.00514892   
   1.92296661716E+04; -0.975173     ;-0.00519133   
   1.93194440042E+04; -0.975164     ;-0.00507971   
   1.94096409840E+04; -0.975187     ;-0.00519448   
   1.95002590678E+04; -0.975263     ;-0.00503176   
   1.95913002216E+04; -0.97529      ;-0.00511014   
   1.96827664206E+04; -0.975556     ;-0.00503587   
   1.97746596492E+04; -0.975612     ;-0.0049135    
   1.98669819012E+04; -0.975667     ;-0.0048673    
   1.99597351794E+04; -0.97549      ;-0.00494095   
   2.00529214962E+04; -0.985102     ;-0.00260144   
   2.01465428734E+04; -0.985615     ;-0.0029567    
   2.02406013422E+04; -0.985682     ;-0.00292934   
   2.03350989431E+04; -0.985535     ;-0.00275734   
   2.04300377265E+04; -0.985696     ;-0.00288993   
   2.05254197519E+04; -0.985751     ;-0.00260697   
   2.06212470888E+04; -0.985826     ;-0.00268705   
   2.07175218163E+04; -0.985879     ;-0.00245751   
   2.08142460231E+04; -0.986001     ;-0.00243971   
   2.09114218076E+04; -0.986004     ;-0.00250834   
   2.10090512782E+04; -0.986129     ;-0.00221177   
   2.11071365529E+04; -0.986148     ;-0.00231275   
   2.12056797599E+04; -0.986282     ;-0.002171     
   2.13046830370E+04; -0.986367     ;-0.00197347   
   2.14041485322E+04; -0.986422     ;-0.00177908   
   2.15040784035E+04; -0.986174     ;-0.00185442   
   2.16044748189E+04; -0.986385     ;-0.00194574   
   2.17053399565E+04; -0.986364     ;-0.00185877   
   2.18066760047E+04; -0.986149     ;-0.00194959   
   2.19084851621E+04; -0.986273     ;-0.00177698   
   2.20107696374E+04; -0.986423     ;-0.00153847   
   2.21135316497E+04; -0.98641      ;-0.00158183   
   2.22167734287E+04; -0.986598     ;-0.00140914   
   2.23204972141E+04; -0.986592     ;-0.00155315   
   2.24247052562E+04; -0.986675     ;-0.00140803   
   2.25293998161E+04; -0.986781     ;-0.00119475   
   2.26345831650E+04; -0.986705     ;-0.00126419   
   2.27402575850E+04; -0.986783     ;-0.0011869    
   2.28464253688E+04; -0.986978     ;-0.00111054   
   2.29530888197E+04; -0.986893     ;-0.00095237   
   2.30602502519E+04; -0.986977     ;-0.000921838  
   2.31679119902E+04; -0.987173     ;-0.000916101  
   2.32760763706E+04; -0.98725      ;-0.000790875  
   2.33847457396E+04; -0.987029     ;-0.000582363  
   2.34939224549E+04; -0.987246     ;-0.00071948   
   2.36036088852E+04; -0.987142     ;-0.000688173  
   2.37138074102E+04; -0.987254     ;-0.000295363  
   2.38245204208E+04; -0.98722      ;-0.000154685  
   2.39357503188E+04; -0.987426     ;-0.000506319  
   2.40474995175E+04; -0.987663     ;-0.000402022  
   2.41597704414E+04; -0.987209     ; 0.00018714   
   2.42725655263E+04; -0.987294     ; 0.000115987  
   2.43858872193E+04; -0.987179     ;-0.000589419  
   2.44997379790E+04; -0.987209     ;-0.000529986  
   2.46141202754E+04; -0.98704      ;-0.000134636  
   2.47290365902E+04; -0.987047     ; 0.00037517   
   2.48444894165E+04; -0.987798     ; 0.000381447  
   2.49604812592E+04; -0.98754      ; 0.000356857  
   2.50770146347E+04; -0.987307     ; 0.000376366  
   2.51940920714E+04; -0.987658     ; 0.000499839  
   2.53117161092E+04; -0.987619     ; 0.000445468  
   2.54298893002E+04; -0.988618     ; 0.000293162  
   2.55486142082E+04; -0.987732     ; 0.000735523  
   2.56678934089E+04; -0.987817     ; 0.000677478  
   2.57877294902E+04; -0.987595     ; 0.000834858  
   2.59081250521E+04; -0.987827     ; 0.00107479   
   2.60290827065E+04; -0.987842     ; 0.000931397  
   2.61506050777E+04; -0.988574     ; 0.000714947  
   2.62726948023E+04; -0.987787     ; 0.00118921   
   2.63953545290E+04; -0.987823     ; 0.00135201   
   2.65185869190E+04; -0.988068     ; 0.00130003   
   2.66423946460E+04; -0.987973     ; 0.00140056   
   2.67667803959E+04; -0.987935     ; 0.00136156   
   2.68917468675E+04; -0.988876     ; 0.00116115   
   2.70172967719E+04; -0.988086     ; 0.00168147   
   2.71434328331E+04; -0.988223     ; 0.00167617   
   2.72701577876E+04; -0.988217     ; 0.00183918   
   2.73974743848E+04; -0.988457     ; 0.00187487   
   2.75253853869E+04; -0.988353     ; 0.00171416   
   2.76538935691E+04; -0.988261     ; 0.00188675   
   2.77830017193E+04; -0.988167     ; 0.0020453    
   2.79127126387E+04; -0.988209     ; 0.00211592   
   2.80430291415E+04; -0.988227     ; 0.00223207   
   2.81739540548E+04; -0.988317     ; 0.00212945   
   2.83054902193E+04; -0.989184     ; 0.00216091   
   2.84376404886E+04; -0.989098     ; 0.00223704   
   2.85704077300E+04; -0.988402     ; 0.00277168   
   2.87037948237E+04; -0.989153     ; 0.0023232    
   2.88378046638E+04; -0.989347     ; 0.00231296   
   2.89724401576E+04; -0.989286     ; 0.00248474   
   2.91077042262E+04; -0.989165     ; 0.00246037   
   2.92435998042E+04; -0.989148     ; 0.00264117   
   2.93801298399E+04; -0.989292     ; 0.00256829   
   2.95172972955E+04; -0.988629     ; 0.00295368   
   2.96551051468E+04; -0.988553     ; 0.00315183   
   2.97935563837E+04; -0.988551     ; 0.00326581   
   2.99326540101E+04; -0.988617     ; 0.00332524   
   3.00724010436E+04; -0.989336     ; 0.00306362   
   3.02128005161E+04; -0.989397     ; 0.00305212   
   3.03538554739E+04; -0.989422     ; 0.00346645   
   3.04955689770E+04; -0.989385     ; 0.00335689   
   3.06379441001E+04; -0.989231     ; 0.00355755   
   3.07809839321E+04; -0.989525     ; 0.00346294   
   3.09246915763E+04; -0.989416     ; 0.00378434   
   3.10690701505E+04; -0.988641     ; 0.00396565   
   3.12141227872E+04; -0.98955      ; 0.0036125    
   3.13598526333E+04; -0.989631     ; 0.00371807   
   3.15062628506E+04; -0.989674     ; 0.00380547   
   3.16533566154E+04; -0.988846     ; 0.00417528   
   3.18011371191E+04; -0.98882      ; 0.00425608   
   3.19496075679E+04; -0.988868     ; 0.00432576   
   3.20987711829E+04; -0.989556     ; 0.00416005   
   3.22486312004E+04; -0.98953      ; 0.00426315   
   3.23991908715E+04; -0.989664     ; 0.00424267   
   3.25504534629E+04; -0.988924     ; 0.00473091   
   3.27024222562E+04; -0.988838     ; 0.00484414   
   3.28551005485E+04; -0.989726     ; 0.00463644   
   3.30084916523E+04; -0.989807     ; 0.00461221   
   3.31625988954E+04; -0.989711     ; 0.00481125   
   3.33174256213E+04; -0.989729     ; 0.00476892   
   3.34729751891E+04; -0.989764     ; 0.00496929   
   3.36292509735E+04; -0.988928     ; 0.00519272   
   3.37862563651E+04; -0.989063     ; 0.00549365   
   3.39439947700E+04; -0.989094     ; 0.00506698   
   3.41024696107E+04; -0.989655     ; 0.00523379   
   3.42616843252E+04; -0.989847     ; 0.00528233   
   3.44216423679E+04; -0.989798     ; 0.00539348   
   3.45823472091E+04; -0.989968     ; 0.00551065   
   3.47438023354E+04; -0.989683     ; 0.00557285   
   3.49060112497E+04; -0.989774     ; 0.00562849   
   3.50689774712E+04; -0.98896      ; 0.00582184   
   3.52327045355E+04; -0.989144     ; 0.00596587   
   3.53971959949E+04; -0.989023     ; 0.00606098   
   3.55624554180E+04; -0.989067     ; 0.00615544   
   3.57284863903E+04; -0.989177     ; 0.00605684   
   3.58952925139E+04; -0.98956      ; 0.00618752   
   3.60628774078E+04; -0.989881     ; 0.00612194   
   3.62312447078E+04; -0.989986     ; 0.00638871   
   3.64003980667E+04; -0.989292     ; 0.00648372   
   3.65703411545E+04; -0.989922     ; 0.00654652   
   3.67410776581E+04; -0.990181     ; 0.00657777   
   3.69126112819E+04; -0.990177     ; 0.00649476   
   3.70849457472E+04; -0.990022     ; 0.00650268   
   3.72580847931E+04; -0.989866     ; 0.00666094   
   3.74320321758E+04; -0.989897     ; 0.00684418   
   3.76067916693E+04; -0.99008      ; 0.00678102   
   3.77823670651E+04; -0.990003     ; 0.00707087   
   3.79587621724E+04; -0.989991     ; 0.00700601   
   3.81359808182E+04; -0.990098     ; 0.00705958   
   3.83140268474E+04; -0.989971     ; 0.00703816   
   3.84929041228E+04; -0.990013     ; 0.00727287   
   3.86726165251E+04; -0.989823     ; 0.00745257   
   3.88531679535E+04; -0.989666     ; 0.00761346   
   3.90345623251E+04; -0.990116     ; 0.00744512   
   3.92168035753E+04; -0.990118     ; 0.0076534    
   3.93998956580E+04; -0.990214     ; 0.00770023   
   3.95838425455E+04; -0.989949     ; 0.00784837   
   3.97686482285E+04; -0.989989     ; 0.00790753   
   3.99543167167E+04; -0.989952     ; 0.00800253   
   4.01408520381E+04; -0.99017      ; 0.00788532   
   4.03282582398E+04; -0.99008      ; 0.00805331   
   4.05165393876E+04; -0.990083     ; 0.0079207    
   4.07056995665E+04; -0.990066     ; 0.0082666    
   4.08957428804E+04; -0.990241     ; 0.00842617   
   4.10866734523E+04; -0.990019     ; 0.00843258   
   4.12784954247E+04; -0.990125     ; 0.00864105   
   4.14712129592E+04; -0.989494     ; 0.00844087   
   4.16648302370E+04; -0.989579     ; 0.00877566   
   4.18593514587E+04; -0.989308     ; 0.0087443    
   4.20547808446E+04; -0.989337     ; 0.0088944    
   4.22511226346E+04; -0.989309     ; 0.0088943    
   4.24483810885E+04; -0.989327     ; 0.0091658    
   4.26465604859E+04; -0.98941      ; 0.00919481   
   4.28456651264E+04; -0.989375     ; 0.00925678   
   4.30456993298E+04; -0.98928      ; 0.00935985   
   4.32466674358E+04; -0.989159     ; 0.0095316    
   4.34485738047E+04; -0.989363     ; 0.00936938   
   4.36514228170E+04; -0.989362     ; 0.00967996   
   4.38552188734E+04; -0.98952      ; 0.00963996   
   4.40599663956E+04; -0.98935      ; 0.00978892   
   4.42656698256E+04; -0.98944      ; 0.00974697   
   4.44723336264E+04; -0.989974     ; 0.00964714   
   4.46799622815E+04; -0.989984     ; 0.009893     
   4.48885602957E+04; -0.989908     ; 0.00996414   
   4.50981321946E+04; -0.989657     ; 0.0101004    
   4.53086825250E+04; -0.989302     ; 0.00992412   
   4.55202158548E+04; -0.989492     ; 0.0102014    
   4.57327367735E+04; -0.989339     ; 0.0103231    
   4.59462498919E+04; -0.989405     ; 0.0104071    
   4.61607598421E+04; -0.989227     ; 0.0105795    
   4.63762712782E+04; -0.989227     ; 0.0107013    
   4.65927888758E+04; -0.989525     ; 0.0106128    
   4.68103173324E+04; -0.989429     ; 0.0108871    
   4.70288613674E+04; -0.989505     ; 0.0109488    
   4.72484257222E+04; -0.989219     ; 0.0108295    
   4.74690151604E+04; -0.98946      ; 0.0111777    
   4.76906344678E+04; -0.989248     ; 0.0112593    
   4.79132884527E+04; -0.989588     ; 0.0112501    
   4.81369819455E+04; -0.989492     ; 0.0113687    
   4.83617197996E+04; -0.989217     ; 0.0109546    
   4.85875068907E+04; -0.989356     ; 0.0107187    
   4.88143481173E+04; -0.989616     ; 0.0115762    
   4.90422484011E+04; -0.989058     ; 0.011524     
   4.92712126863E+04; -0.989752     ; 0.011703     
   4.95012459405E+04; -0.989363     ; 0.0117725    
   4.97323531545E+04; -0.989493     ; 0.0117987    
   4.99645393422E+04; -0.989399     ; 0.0119725    
   5.01978095410E+04; -0.98976      ; 0.0122512    
   5.04321688120E+04; -0.989278     ; 0.0118728    
   5.06676222396E+04; -0.9894       ; 0.0114283    
   5.09041749322E+04; -0.989454     ; 0.011882     
