
  ZVR, 2.05

  stimulus-start        ; stimulus-stop       ; stimulus-unit       ; nof-points; parameter-type; impedance-ohm
  9.00000000000E+03     ; 1.00000000000E+08   ; Hz                  ; 2001      ; S11           ; 50        

  conversion            ; time-domain         ; data-format         ; param-unit; smoothing     ; trace-math
  S                     ; none                ; RI                  ; none      ; none          ; none

  sweep-mode-type       ; notlinear-meas-mode 
  FUNDAMENTAL           ; none                


  freq              ;  reS11        ; imS11         
   9.00000000000E+03;  0.848598     ; 0.402866     
   9.04201843582E+03;  0.849738     ; 0.403678     
   9.08423304375E+03;  0.852833     ; 0.403462     
   9.12664473965E+03;  0.855775     ; 0.403489     
   9.16925444368E+03;  0.852583     ; 0.403509     
   9.21206308028E+03;  0.85503      ; 0.398459     
   9.25507157820E+03;  0.857154     ; 0.394226     
   9.29828087055E+03;  0.857445     ; 0.392801     
   9.34169189477E+03;  0.859441     ; 0.39094      
   9.38530559270E+03;  0.860901     ; 0.389412     
   9.42912291056E+03;  0.861801     ; 0.387353     
   9.47314479899E+03;  0.862243     ; 0.386445     
   9.51737221307E+03;  0.862488     ; 0.384672     
   9.56180611235E+03;  0.864718     ; 0.382482     
   9.60644746085E+03;  0.864485     ; 0.381796     
   9.65129722708E+03;  0.865906     ; 0.379213     
   9.69635638410E+03;  0.867391     ; 0.37717      
   9.74162590948E+03;  0.868342     ; 0.375273     
   9.78710678538E+03;  0.868827     ; 0.374211     
   9.83279999853E+03;  0.870446     ; 0.373402     
   9.87870654027E+03;  0.872934     ; 0.371327     
   9.92482740658E+03;  0.873337     ; 0.369312     
   9.97116359807E+03;  0.874647     ; 0.366813     
   1.00177161200E+04;  0.875688     ; 0.365663     
   1.00644859825E+04;  0.876753     ; 0.363582     
   1.01114742001E+04;  0.878432     ; 0.362805     
   1.01586817922E+04;  0.879551     ; 0.360746     
   1.02061097832E+04;  0.87956      ; 0.359295     
   1.02537592020E+04;  0.881043     ; 0.357225     
   1.03016310823E+04;  0.881875     ; 0.355217     
   1.03497264628E+04;  0.883034     ; 0.353791     
   1.03980463870E+04;  0.88357      ; 0.35195      
   1.04465919031E+04;  0.884539     ; 0.350636     
   1.04953640643E+04;  0.885922     ; 0.349098     
   1.05443639289E+04;  0.886087     ; 0.346956     
   1.05935925599E+04;  0.886947     ; 0.345665     
   1.06430510254E+04;  0.890444     ; 0.345695     
   1.06927403983E+04;  0.891846     ; 0.344237     
   1.07426617568E+04;  0.891067     ; 0.341362     
   1.07928161838E+04;  0.891588     ; 0.338392     
   1.08432047676E+04;  0.893104     ; 0.336232     
   1.08938286014E+04;  0.893889     ; 0.334292     
   1.09446887834E+04;  0.894788     ; 0.333171     
   1.09957864171E+04;  0.89589      ; 0.33098      
   1.10471226110E+04;  0.89712      ; 0.329669     
   1.10986984791E+04;  0.897877     ; 0.327815     
   1.11505151402E+04;  0.898906     ; 0.32621      
   1.12025737185E+04;  0.900163     ; 0.324223     
   1.12548753435E+04;  0.900286     ; 0.322822     
   1.13074211498E+04;  0.901545     ; 0.321029     
   1.13602122776E+04;  0.902378     ; 0.319451     
   1.14132498721E+04;  0.9033       ; 0.317525     
   1.14665350840E+04;  0.904507     ; 0.31583      
   1.15200690694E+04;  0.905182     ; 0.314055     
   1.15738529897E+04;  0.906024     ; 0.31254      
   1.16278880118E+04;  0.90688      ; 0.310646     
   1.16821753081E+04;  0.907816     ; 0.30895      
   1.17367160562E+04;  0.909137     ; 0.307185     
   1.17915114396E+04;  0.909731     ; 0.305685     
   1.18465626470E+04;  0.910572     ; 0.304421     
   1.19018708728E+04;  0.911604     ; 0.302204     
   1.19574373170E+04;  0.912047     ; 0.300369     
   1.20132631851E+04;  0.91345      ; 0.298833     
   1.20693496882E+04;  0.913743     ; 0.297226     
   1.21256980432E+04;  0.914669     ; 0.29516      
   1.21823094727E+04;  0.915345     ; 0.29371      
   1.22391852047E+04;  0.916241     ; 0.292097     
   1.22963264734E+04;  0.917483     ; 0.290011     
   1.23537345184E+04;  0.918151     ; 0.288352     
   1.24114105852E+04;  0.919264     ; 0.286572     
   1.24693559251E+04;  0.919855     ; 0.285103     
   1.25275717953E+04;  0.920603     ; 0.283419     
   1.25860594587E+04;  0.921517     ; 0.281718     
   1.26448201845E+04;  0.922184     ; 0.279979     
   1.27038552473E+04;  0.923119     ; 0.278221     
   1.27631659280E+04;  0.923775     ; 0.276578     
   1.28227535134E+04;  0.924526     ; 0.274891     
   1.28826192962E+04;  0.92539      ; 0.273113     
   1.29427645754E+04;  0.926089     ; 0.271469     
   1.30031906557E+04;  0.926527     ; 0.269782     
   1.30638988481E+04;  0.927628     ; 0.267947     
   1.31248904698E+04;  0.928493     ; 0.266589     
   1.31861668440E+04;  0.929244     ; 0.26469      
   1.32477293002E+04;  0.92973      ; 0.263115     
   1.33095791739E+04;  0.930704     ; 0.261278     
   1.33717178070E+04;  0.931264     ; 0.259614     
   1.34341465477E+04;  0.932077     ; 0.257939     
   1.34968667505E+04;  0.932921     ; 0.256342     
   1.35598797759E+04;  0.933629     ; 0.254537     
   1.36231869913E+04;  0.935504     ; 0.253673     
   1.36867897700E+04;  0.938164     ; 0.252534     
   1.37506894919E+04;  0.940033     ; 0.251401     
   1.38148875435E+04;  0.93754      ; 0.249135     
   1.38793853174E+04;  0.93805      ; 0.247021     
   1.39441842131E+04;  0.939231     ; 0.244684     
   1.40092856364E+04;  0.939231     ; 0.242577     
   1.40746909997E+04;  0.940009     ; 0.241302     
   1.41404017219E+04;  0.940665     ; 0.239746     
   1.42064192289E+04;  0.941449     ; 0.237711     
   1.42727449527E+04;  0.941955     ; 0.236021     
   1.43393803325E+04;  0.94272      ; 0.234698     
   1.44063268138E+04;  0.943533     ; 0.233064     
   1.44735858492E+04;  0.943992     ; 0.230962     
   1.45411588979E+04;  0.944064     ; 0.229769     
   1.46090474259E+04;  0.945687     ; 0.228112     
   1.46772529061E+04;  0.946179     ; 0.225995     
   1.47457768182E+04;  0.946431     ; 0.225381     
   1.48146206490E+04;  0.94701      ; 0.222785     
   1.48837858920E+04;  0.947513     ; 0.22088      
   1.49532740478E+04;  0.948415     ; 0.219233     
   1.50230866240E+04;  0.948749     ; 0.217209     
   1.50932251352E+04;  0.949684     ; 0.216051     
   1.51636911032E+04;  0.950036     ; 0.21443      
   1.52344860567E+04;  0.950169     ; 0.213804     
   1.53056115317E+04;  0.95126      ; 0.212253     
   1.53770690712E+04;  0.952388     ; 0.20991      
   1.54488602256E+04;  0.952876     ; 0.208326     
   1.55209865525E+04;  0.953519     ; 0.206147     
   1.55934496167E+04;  0.953778     ; 0.204382     
   1.56662509902E+04;  0.953645     ; 0.20293      
   1.57393922526E+04;  0.953726     ; 0.201922     
   1.58128749908E+04;  0.954642     ; 0.20025      
   1.58867007989E+04;  0.956156     ; 0.198159     
   1.59608712786E+04;  0.95646      ; 0.196644     
   1.60353880393E+04;  0.956936     ; 0.19489      
   1.61102526974E+04;  0.957371     ; 0.193242     
   1.61854668773E+04;  0.957957     ; 0.191524     
   1.62610322108E+04;  0.957625     ; 0.18988      
   1.63369503372E+04;  0.95833      ; 0.188324     
   1.64132229038E+04;  0.959053     ; 0.18729      
   1.64898515653E+04;  0.958732     ; 0.185011     
   1.65668379841E+04;  0.959742     ; 0.183889     
   1.66441838307E+04;  0.960923     ; 0.181714     
   1.67218907829E+04;  0.96303      ; 0.181043     
   1.67999605267E+04;  0.96536      ; 0.183061     
   1.68783947560E+04;  0.962499     ; 0.178389     
   1.69571951723E+04;  0.962376     ; 0.174941     
   1.70363634853E+04;  0.963031     ; 0.173448     
   1.71159014126E+04;  0.962508     ; 0.171859     
   1.71958106798E+04;  0.963224     ; 0.170036     
   1.72760930207E+04;  0.963556     ; 0.168705     
   1.73567501769E+04;  0.963821     ; 0.167029     
   1.74377838984E+04;  0.964387     ; 0.165328     
   1.75191959432E+04;  0.965058     ; 0.16419      
   1.76009880777E+04;  0.965739     ; 0.16213      
   1.76831620763E+04;  0.966063     ; 0.160494     
   1.77657197220E+04;  0.966298     ; 0.158571     
   1.78486628058E+04;  0.966334     ; 0.156998     
   1.79319931272E+04;  0.966945     ; 0.155696     
   1.80157124941E+04;  0.967426     ; 0.154221     
   1.80998227229E+04;  0.96796      ; 0.152671     
   1.81843256384E+04;  0.968704     ; 0.150517     
   1.82692230739E+04;  0.968947     ; 0.146985     
   1.83545168714E+04;  0.969666     ; 0.146034     
   1.84402088813E+04;  0.970099     ; 0.145739     
   1.85263009628E+04;  0.969491     ; 0.145301     
   1.86127949837E+04;  0.970082     ; 0.142933     
   1.86996928205E+04;  0.970758     ; 0.141189     
   1.87869963586E+04;  0.971041     ; 0.139861     
   1.88747074920E+04;  0.97126      ; 0.138065     
   1.89628281237E+04;  0.971761     ; 0.136497     
   1.90513601656E+04;  0.972325     ; 0.134828     
   1.91403055383E+04;  0.972628     ; 0.133465     
   1.92296661716E+04;  0.972902     ; 0.131638     
   1.93194440042E+04;  0.973323     ; 0.130174     
   1.94096409840E+04;  0.973974     ; 0.128492     
   1.95002590678E+04;  0.974021     ; 0.127164     
   1.95913002216E+04;  0.974491     ; 0.125218     
   1.96827664206E+04;  0.974539     ; 0.123477     
   1.97746596492E+04;  0.974503     ; 0.122027     
   1.98669819012E+04;  0.975201     ; 0.120458     
   1.99597351794E+04;  0.976024     ; 0.119127     
   2.00529214962E+04;  0.985985     ; 0.110216     
   2.01465428734E+04;  0.985514     ; 0.10758      
   2.02406013422E+04;  0.985998     ; 0.105997     
   2.03350989431E+04;  0.986095     ; 0.104786     
   2.04300377265E+04;  0.986471     ; 0.102829     
   2.05254197519E+04;  0.986895     ; 0.101705     
   2.06212470888E+04;  0.986978     ; 0.0997965    
   2.07175218163E+04;  0.987367     ; 0.0982711    
   2.08142460231E+04;  0.987606     ; 0.0968437    
   2.09114218076E+04;  0.987896     ; 0.0950718    
   2.10090512782E+04;  0.988175     ; 0.093654     
   2.11071365529E+04;  0.988273     ; 0.0920492    
   2.12056797599E+04;  0.988701     ; 0.0905497    
   2.13046830370E+04;  0.98846      ; 0.0890805    
   2.14041485322E+04;  0.988871     ; 0.0881014    
   2.15040784035E+04;  0.989598     ; 0.0858794    
   2.16044748189E+04;  0.989792     ; 0.0844436    
   2.17053399565E+04;  0.989785     ; 0.0825125    
   2.18066760047E+04;  0.990288     ; 0.080946     
   2.19084851621E+04;  0.990413     ; 0.0795559    
   2.20107696374E+04;  0.990617     ; 0.0778707    
   2.21135316497E+04;  0.990749     ; 0.0762739    
   2.22167734287E+04;  0.991006     ; 0.074898     
   2.23204972141E+04;  0.99111      ; 0.0732419    
   2.24247052562E+04;  0.99144      ; 0.071607     
   2.25293998161E+04;  0.991433     ; 0.0699238    
   2.26345831650E+04;  0.991605     ; 0.0684038    
   2.27402575850E+04;  0.992023     ; 0.0668914    
   2.28464253688E+04;  0.992201     ; 0.0650217    
   2.29530888197E+04;  0.992337     ; 0.06386      
   2.30602502519E+04;  0.992493     ; 0.0621791    
   2.31679119902E+04;  0.992713     ; 0.0605976    
   2.32760763706E+04;  0.992872     ; 0.0590444    
   2.33847457396E+04;  0.993032     ; 0.0574731    
   2.34939224549E+04;  0.993366     ; 0.0559297    
   2.36036088852E+04;  0.993145     ; 0.0545464    
   2.37138074102E+04;  0.993864     ; 0.052619     
   2.38245204208E+04;  0.993453     ; 0.0511323    
   2.39357503188E+04;  0.993906     ; 0.0491579    
   2.40474995175E+04;  0.994102     ; 0.0478259    
   2.41597704414E+04;  0.994276     ; 0.0459887    
   2.42725655263E+04;  0.995008     ; 0.0452781    
   2.43858872193E+04;  0.993373     ; 0.0433653    
   2.44997379790E+04;  0.993678     ; 0.0418015    
   2.46141202754E+04;  0.995321     ; 0.0403017    
   2.47290365902E+04;  0.99506      ; 0.0380083    
   2.48444894165E+04;  0.99504      ; 0.036507     
   2.49604812592E+04;  0.995009     ; 0.0351898    
   2.50770146347E+04;  0.995207     ; 0.0338132    
   2.51940920714E+04;  0.995521     ; 0.0318496    
   2.53117161092E+04;  0.995636     ; 0.0305719    
   2.54298893002E+04;  0.995411     ; 0.0290409    
   2.55486142082E+04;  0.995686     ; 0.027355     
   2.56678934089E+04;  0.995751     ; 0.0257842    
   2.57877294902E+04;  0.996116     ; 0.024139     
   2.59081250521E+04;  0.996064     ; 0.0226017    
   2.60290827065E+04;  0.996036     ; 0.0212111    
   2.61506050777E+04;  0.996268     ; 0.0194294    
   2.62726948023E+04;  0.996319     ; 0.0181533    
   2.63953545290E+04;  0.996605     ; 0.0163148    
   2.65185869190E+04;  0.996602     ; 0.0147168    
   2.66423946460E+04;  0.996772     ; 0.0130829    
   2.67667803959E+04;  0.996667     ; 0.0115973    
   2.68917468675E+04;  0.99682      ; 0.00995937   
   2.70172967719E+04;  0.996937     ; 0.00854948   
   2.71434328331E+04;  0.996911     ; 0.00684795   
   2.72701577876E+04;  0.996961     ; 0.00550535   
   2.73974743848E+04;  0.997035     ; 0.00357145   
   2.75253853869E+04;  0.996926     ; 0.00210115   
   2.76538935691E+04;  0.997201     ; 0.000550091  
   2.77830017193E+04;  0.997362     ;-0.000877798  
   2.79127126387E+04;  0.997062     ;-0.00253347   
   2.80430291415E+04;  0.997411     ;-0.00409544   
   2.81739540548E+04;  0.997328     ;-0.00570449   
   2.83054902193E+04;  0.997596     ;-0.00738961   
   2.84376404886E+04;  0.99744      ;-0.00883615   
   2.85704077300E+04;  0.997727     ;-0.0103671    
   2.87037948237E+04;  0.997516     ;-0.0118995    
   2.88378046638E+04;  0.997762     ;-0.0136389    
   2.89724401576E+04;  0.997383     ;-0.0152314    
   2.91077042262E+04;  0.997605     ;-0.0168949    
   2.92435998042E+04;  0.99762      ;-0.0183729    
   2.93801298399E+04;  0.997717     ;-0.0200898    
   2.95172972955E+04;  0.997694     ;-0.0214099    
   2.96551051468E+04;  0.997688     ;-0.0231087    
   2.97935563837E+04;  0.997831     ;-0.0246474    
   2.99326540101E+04;  0.997621     ;-0.0264281    
   3.00724010436E+04;  0.997825     ;-0.0277336    
   3.02128005161E+04;  0.997882     ;-0.0295262    
   3.03538554739E+04;  0.997788     ;-0.030879     
   3.04955689770E+04;  0.997637     ;-0.0326521    
   3.06379441001E+04;  0.998793     ;-0.0343208    
   3.07809839321E+04;  0.997772     ;-0.0359084    
   3.09246915763E+04;  0.997728     ;-0.0374017    
   3.10690701505E+04;  0.997699     ;-0.0391429    
   3.12141227872E+04;  0.997762     ;-0.0406515    
   3.13598526333E+04;  0.997502     ;-0.0423506    
   3.15062628506E+04;  0.9976       ;-0.0437831    
   3.16533566154E+04;  0.998371     ;-0.0454262    
   3.18011371191E+04;  0.99757      ;-0.0469765    
   3.19496075679E+04;  0.998195     ;-0.048886     
   3.20987711829E+04;  0.997578     ;-0.0502623    
   3.22486312004E+04;  0.997302     ;-0.0517775    
   3.23991908715E+04;  0.997213     ;-0.0533654    
   3.25504534629E+04;  0.99733      ;-0.0548306    
   3.27024222562E+04;  0.997121     ;-0.0564894    
   3.28551005485E+04;  0.99747      ;-0.0581464    
   3.30084916523E+04;  0.996984     ;-0.0599839    
   3.31625988954E+04;  0.997224     ;-0.061392     
   3.33174256213E+04;  0.997032     ;-0.0630901    
   3.34729751891E+04;  0.996951     ;-0.0646351    
   3.36292509735E+04;  0.996705     ;-0.0663855    
   3.37862563651E+04;  0.996804     ;-0.0678561    
   3.39439947700E+04;  0.997625     ;-0.0695665    
   3.41024696107E+04;  0.997488     ;-0.071208     
   3.42616843252E+04;  0.997334     ;-0.0729452    
   3.44216423679E+04;  0.997383     ;-0.074399     
   3.45823472091E+04;  0.997294     ;-0.0760198    
   3.47438023354E+04;  0.996025     ;-0.0774136    
   3.49060112497E+04;  0.996134     ;-0.0792283    
   3.50689774712E+04;  0.996961     ;-0.0809481    
   3.52327045355E+04;  0.996806     ;-0.0825684    
   3.53971959949E+04;  0.996886     ;-0.084127     
   3.55624554180E+04;  0.996626     ;-0.0857414    
   3.57284863903E+04;  0.996469     ;-0.0874671    
   3.58952925139E+04;  0.995394     ;-0.0888541    
   3.60628774078E+04;  0.995246     ;-0.0905684    
   3.62312447078E+04;  0.995309     ;-0.0922309    
   3.64003980667E+04;  0.995934     ;-0.0937496    
   3.65703411545E+04;  0.995881     ;-0.0955814    
   3.67410776581E+04;  0.995613     ;-0.0971538    
   3.69126112819E+04;  0.995618     ;-0.0989188    
   3.70849457472E+04;  0.995217     ;-0.100573     
   3.72580847931E+04;  0.994272     ;-0.102011     
   3.74320321758E+04;  0.994425     ;-0.103601     
   3.76067916693E+04;  0.994068     ;-0.10525      
   3.77823670651E+04;  0.994789     ;-0.107047     
   3.79587621724E+04;  0.994476     ;-0.108747     
   3.81359808182E+04;  0.994649     ;-0.110558     
   3.83140268474E+04;  0.994259     ;-0.11208      
   3.84929041228E+04;  0.994223     ;-0.113768     
   3.86726165251E+04;  0.993922     ;-0.115441     
   3.88531679535E+04;  0.993891     ;-0.117095     
   3.90345623251E+04;  0.993335     ;-0.118647     
   3.92168035753E+04;  0.993244     ;-0.120378     
   3.93998956580E+04;  0.993138     ;-0.122237     
   3.95838425455E+04;  0.992886     ;-0.123628     
   3.97686482285E+04;  0.992018     ;-0.125235     
   3.99543167167E+04;  0.991519     ;-0.126825     
   4.01408520381E+04;  0.991428     ;-0.128488     
   4.03282582398E+04;  0.992099     ;-0.130465     
   4.05165393876E+04;  0.991977     ;-0.132249     
   4.07056995665E+04;  0.991868     ;-0.134016     
   4.08957428804E+04;  0.991495     ;-0.135425     
   4.10866734523E+04;  0.991253     ;-0.136938     
   4.12784954247E+04;  0.990064     ;-0.138753     
   4.14712129592E+04;  0.990737     ;-0.140748     
   4.16648302370E+04;  0.990607     ;-0.142355     
   4.18593514587E+04;  0.990118     ;-0.144057     
   4.20547808446E+04;  0.990089     ;-0.145803     
   4.22511226346E+04;  0.989731     ;-0.14741      
   4.24483810885E+04;  0.98962      ;-0.149161     
   4.26465604859E+04;  0.988372     ;-0.150647     
   4.28456651264E+04;  0.988155     ;-0.152554     
   4.30456993298E+04;  0.988602     ;-0.154327     
   4.32466674358E+04;  0.988363     ;-0.156015     
   4.34485738047E+04;  0.988162     ;-0.15774      
   4.36514228170E+04;  0.988104     ;-0.159387     
   4.38552188734E+04;  0.987618     ;-0.161175     
   4.40599663956E+04;  0.987281     ;-0.162922     
   4.42656698256E+04;  0.987109     ;-0.164849     
   4.44723336264E+04;  0.986824     ;-0.166304     
   4.46799622815E+04;  0.986335     ;-0.168122     
   4.48885602957E+04;  0.986089     ;-0.169837     
   4.50981321946E+04;  0.985943     ;-0.171645     
   4.53086825250E+04;  0.985479     ;-0.173345     
   4.55202158548E+04;  0.985165     ;-0.17512      
   4.57327367735E+04;  0.984192     ;-0.176924     
   4.59462498919E+04;  0.98355      ;-0.178365     
   4.61607598421E+04;  0.984046     ;-0.180098     
   4.63762712782E+04;  0.983869     ;-0.181994     
   4.65927888758E+04;  0.983452     ;-0.183911     
   4.68103173324E+04;  0.983319     ;-0.18563      
   4.70288613674E+04;  0.982925     ;-0.187426     
   4.72484257222E+04;  0.982739     ;-0.189221     
   4.74690151604E+04;  0.982202     ;-0.191094     
   4.76906344678E+04;  0.981716     ;-0.192664     
   4.79132884527E+04;  0.981364     ;-0.194631     
   4.81369819455E+04;  0.981121     ;-0.196531     
   4.83617197996E+04;  0.980562     ;-0.19805      
   4.85875068907E+04;  0.980187     ;-0.199751     
   4.88143481173E+04;  0.979821     ;-0.202052     
   4.90422484011E+04;  0.978523     ;-0.203325     
   4.92712126863E+04;  0.978402     ;-0.205349     
   4.95012459405E+04;  0.97869      ;-0.207195     
   4.97323531545E+04;  0.978519     ;-0.208975     
   4.99645393422E+04;  0.977869     ;-0.210888     
   5.01978095410E+04;  0.97754      ;-0.212812     
   5.04321688120E+04;  0.977222     ;-0.214209     
   5.06676222396E+04;  0.976623     ;-0.216202     
   5.09041749322E+04;  0.975927     ;-0.217673     
